Load (N)	Extension (mm)
	
	
	
	
5.2134	0.069275
5.2156	0.069275
5.2178	0.069275
5.2200	0.069275
5.2223	0.069275
5.2245	0.069275
5.2267	0.069275
5.2289	0.069275
5.2311	0.069275
5.2334	0.069275
5.2356	0.069275
5.2378	0.069275
5.2400	0.069275
5.2422	0.069275
5.2445	0.069275
5.2467	0.069275
5.2489	0.069275
5.2511	0.069275
5.2533	0.069275
5.2556	0.069275
5.2578	0.069275
5.2600	0.069275
5.2622	0.069275
5.2644	0.069275
5.2667	0.069275
5.2689	0.069275
5.2711	0.069275
5.2733	0.069275
5.2755	0.069275
5.2778	0.069275
5.2800	0.069275
5.2822	0.069189
5.2844	0.062857
4.8125	0.051813
3.6946	0.034351
1.4606	0.014970
-0.55380	-0.000046563
-1.1840	-0.00023846
0.32358	0.0084578
2.9274	0.021117
4.8811	0.022076
4.8428	0.020229
2.5740	0.015240
1.3607	0.014458
0.60907	0.014242
0.63566	0.014026
0.66224	0.013810
0.68882	0.013594
0.71541	0.013378
0.74199	0.013162
0.76857	0.012946
0.79516	0.012730
0.82174	0.012571
0.84832	0.012524
0.87491	0.0034522
0.67964	-0.010191
-0.68808	-0.032042
-2.0558	-0.053894
-3.4235	-0.075746
-3.6385	-0.097597
-3.8282	-0.12025
-4.0180	-0.14417
-4.2077	-0.16809
-4.3974	-0.19239
-4.5871	-0.21813
-4.7768	-0.24386
-4.9665	-0.26959
-5.1562	-0.29532
-5.3459	-0.32106
-5.5356	-0.34679
-5.7253	-0.37252
-5.9150	-0.39825
-6.1047	-0.42399
-6.2944	-0.45021
-6.4841	-0.47667
-6.6738	-0.50313
-6.8635	-0.52959
-7.0532	-0.55606
-7.2429	-0.58252
-7.4326	-0.60898
-7.6223	-0.63545
-7.8120	-0.66191
-8.0017	-0.68837
-8.1914	-0.71483
-8.3811	-0.74130
-8.5708	-0.76776
-8.7605	-0.79422
-8.9502	-0.82069
-9.1399	-0.84715
-9.3296	-0.87361
-9.5193	-0.90005
-9.7090	-0.92640
-9.8987	-0.95274
-10.088	-0.97909
-10.278	-1.0054
-10.468	-1.0318
-10.658	-1.0581
-10.847	-1.0845
-11.037	-1.1108
-11.227	-1.1372
-11.416	-1.1627
-11.606	-1.1879
-11.796	-1.2150
-11.985	-1.2421
-12.175	-1.2692
-12.365	-1.2963
-12.555	-1.3231
-12.744	-1.3494
-12.934	-1.3757
-13.124	-1.4020
-13.313	-1.4283
-13.503	-1.4546
-13.693	-1.4809
-13.882	-1.5072
-14.072	-1.5335
-14.262	-1.5598
-14.452	-1.5861
-14.641	-1.6123
-14.831	-1.6386
-15.021	-1.6649
-15.210	-1.6912
-15.400	-1.7174
-15.590	-1.7436
-15.780	-1.7698
-15.969	-1.7960
-16.159	-1.8221
-16.349	-1.8483
-16.538	-1.8745
-16.728	-1.9007
-16.918	-1.9269
-17.107	-1.9530
-17.297	-1.9792
-17.487	-2.0059
-17.677	-2.0326
-17.866	-2.0594
-18.056	-2.0858
-18.246	-2.1120
-18.435	-2.1382
-18.625	-2.1644
-18.815	-2.1906
-19.004	-2.2168
-19.194	-2.2430
-19.384	-2.2692
-19.574	-2.2954
-19.763	-2.3216
-19.953	-2.3478
-20.143	-2.3740
-20.332	-2.4002
-20.522	-2.4264
-20.712	-2.4526
-20.901	-2.4788
-21.091	-2.5050
-21.281	-2.5312
-21.471	-2.5574
-21.660	-2.5836
-21.850	-2.6098
-22.040	-2.6360
-22.229	-2.6624
-22.419	-2.6892
-22.609	-2.7160
-22.798	-2.7428
-22.988	-2.7696
-23.178	-2.7956
-23.368	-2.8210
-23.557	-2.8465
-23.747	-2.8720
-23.937	-2.8975
-24.126	-2.9236
-24.316	-2.9498
-24.506	-2.9761
-24.696	-3.0023
-24.885	-3.0286
-25.075	-3.0548
-25.265	-3.0810
-25.454	-3.1073
-25.632	-3.1335
-25.807	-3.1598
-25.983	-3.1860
-26.159	-3.2123
-26.335	-3.2385
-26.511	-3.2648
-26.686	-3.2910
-26.862	-3.3172
-27.038	-3.3435
-27.214	-3.3697
-27.390	-3.3960
-27.565	-3.4222
-27.741	-3.4485
-27.917	-3.4747
-28.093	-3.5009
-28.269	-3.5272
-28.444	-3.5534
-28.620	-3.5797
-28.796	-3.6059
-28.972	-3.6322
-29.148	-3.6584
-29.323	-3.6846
-29.499	-3.7109
-29.675	-3.7371
-29.851	-3.7634
-30.027	-3.7896
-30.202	-3.8159
-30.378	-3.8421
-30.554	-3.8683
-30.730	-3.8946
-30.906	-3.9208
-31.081	-3.9471
-31.257	-3.9733
-31.433	-3.9996
-31.609	-4.0258
-31.785	-4.0520
-31.960	-4.0782
-32.136	-4.1044
-32.312	-4.1306
-32.488	-4.1568
-32.664	-4.1829
-32.839	-4.2091
-33.015	-4.2353
-33.191	-4.2615
-33.367	-4.2877
-33.543	-4.3139
-33.718	-4.3401
-33.894	-4.3663
-34.070	-4.3925
-34.246	-4.4187
-34.421	-4.4449
-34.597	-4.4710
-34.773	-4.4972
-34.949	-4.5234
-35.125	-4.5496
-35.300	-4.5758
-35.476	-4.6020
-35.652	-4.6282
-35.828	-4.6544
-36.004	-4.6806
-36.179	-4.7068
-36.355	-4.7330
-36.531	-4.7591
-36.707	-4.7853
-36.883	-4.8115
-37.058	-4.8377
-37.234	-4.8639
-37.410	-4.8901
-37.586	-4.9163
-37.762	-4.9425
-37.937	-4.9687
-38.115	-4.9949
-38.295	-5.0211
-38.475	-5.0472
-38.655	-5.0734
-38.835	-5.0996
-39.015	-5.1258
-39.195	-5.1520
-39.375	-5.1782
-39.555	-5.2044
-39.735	-5.2306
-39.915	-5.2568
-40.096	-5.2830
-40.276	-5.3092
-40.456	-5.3353
-40.636	-5.3615
-40.816	-5.3877
-40.996	-5.4139
-41.176	-5.4401
-41.356	-5.4663
-41.536	-5.4925
-41.716	-5.5187
-41.896	-5.5449
-42.076	-5.5711
-42.257	-5.5973
-42.437	-5.6234
-42.617	-5.6496
-42.797	-5.6758
-42.977	-5.7020
-43.157	-5.7282
-43.337	-5.7544
-43.517	-5.7806
-43.697	-5.8068
-43.877	-5.8330
-44.057	-5.8592
-44.237	-5.8854
-44.418	-5.9115
-44.598	-5.9377
-44.778	-5.9639
-44.958	-5.9901
-45.138	-6.0163
-45.318	-6.0425
-45.498	-6.0687
-45.678	-6.0949
-45.858	-6.1211
-46.038	-6.1473
-46.218	-6.1735
-46.398	-6.1996
-46.579	-6.2258
-46.759	-6.2520
-46.939	-6.2782
-47.119	-6.3044
-47.299	-6.3306
-47.479	-6.3568
-47.632	-6.3830
-47.781	-6.4092
-47.929	-6.4354
-48.078	-6.4616
-48.226	-6.4878
-48.375	-6.5139
-48.523	-6.5401
-48.672	-6.5663
-48.820	-6.5925
-48.969	-6.6187
-49.117	-6.6449
-49.266	-6.6711
-49.414	-6.6973
-49.563	-6.7235
-49.711	-6.7497
-49.860	-6.7759
-50.008	-6.8020
-50.157	-6.8282
-50.305	-6.8544
-50.454	-6.8806
-50.602	-6.9068
-50.751	-6.9330
-50.899	-6.9592
-51.048	-6.9854
-51.196	-7.0116
-51.345	-7.0378
-51.493	-7.0640
-51.642	-7.0901
-51.790	-7.1163
-51.939	-7.1425
-52.087	-7.1687
-52.236	-7.1949
-52.384	-7.2211
-52.533	-7.2473
-52.681	-7.2735
-52.830	-7.2997
-52.978	-7.3259
-53.127	-7.3521
-53.275	-7.3782
-53.424	-7.4044
-53.572	-7.4306
-53.749	-7.4568
-53.953	-7.4830
-54.157	-7.5092
-54.361	-7.5354
-54.565	-7.5616
-54.769	-7.5878
-54.973	-7.6140
-55.177	-7.6402
-55.381	-7.6663
-55.585	-7.6925
-55.790	-7.7187
-55.994	-7.7450
-56.198	-7.7712
-56.402	-7.7974
-56.606	-7.8236
-56.810	-7.8498
-57.014	-7.8760
-57.218	-7.9022
-57.422	-7.9284
-57.626	-7.9546
-57.831	-7.9809
-57.988	-8.0071
-58.136	-8.0333
-58.284	-8.0595
-58.431	-8.0857
-58.579	-8.1119
-58.727	-8.1381
-58.874	-8.1643
-59.022	-8.1906
-59.169	-8.2168
-59.317	-8.2430
-59.465	-8.2692
-59.612	-8.2954
-59.760	-8.3216
-59.908	-8.3478
-60.055	-8.3740
-60.203	-8.4002
-60.351	-8.4265
-60.498	-8.4527
-60.646	-8.4789
-60.794	-8.5051
-60.941	-8.5313
-61.089	-8.5575
-61.237	-8.5837
-61.384	-8.6099
-61.532	-8.6362
-61.680	-8.6624
-61.827	-8.6886
-61.975	-8.7148
-62.122	-8.7410
-62.270	-8.7672
-62.418	-8.7934
-62.565	-8.8196
-62.713	-8.8458
-62.861	-8.8721
-63.008	-8.8983
-63.156	-8.9245
-63.304	-8.9507
-63.451	-8.9769
-63.595	-9.0031
-63.736	-9.0293
-63.878	-9.0555
-64.019	-9.0817
-64.161	-9.1080
-64.302	-9.1341
-64.443	-9.1603
-64.585	-9.1864
-64.726	-9.2126
-64.868	-9.2387
-65.009	-9.2649
-65.150	-9.2911
-65.292	-9.3172
-65.433	-9.3434
-65.575	-9.3695
-65.716	-9.3957
-65.858	-9.4218
-65.999	-9.4480
-66.140	-9.4742
-66.282	-9.5003
-66.423	-9.5265
-66.565	-9.5526
-66.706	-9.5788
-66.847	-9.6049
-66.989	-9.6311
-67.130	-9.6573
-67.272	-9.6834
-67.413	-9.7096
-67.555	-9.7357
-67.696	-9.7619
-67.837	-9.7880
-67.979	-9.8142
-68.120	-9.8403
-68.262	-9.8665
-68.403	-9.8927
-68.544	-9.9188
-68.686	-9.9450
-68.827	-9.9711
-68.969	-9.9960
-69.110	-10.020
-69.252	-10.024
-68.458	-10.023
-65.561	-10.014
-63.613	-10.011
-62.232	-10.010
-62.187	-10.008
-62.142	-10.007
-62.097	-10.006
-62.052	-10.005
-62.007	-10.005
-61.962	-10.005
-61.917	-10.005
-61.872	-10.004
-61.827	-10.004
-61.782	-9.9961
-61.737	-9.9827
-59.859	-9.9596
-57.973	-9.9364
-56.087	-9.9133
-54.200	-9.8901
-51.970	-9.8670
-48.551	-9.8438
-45.131	-9.8207
-41.855	-9.7975
-41.703	-9.7744
-41.550	-9.7499
-41.398	-9.7237
-41.246	-9.6975
-41.094	-9.6713
-40.942	-9.6451
-40.789	-9.6189
-40.637	-9.5927
-40.485	-9.5666
-40.333	-9.5404
-40.180	-9.5142
-40.028	-9.4880
-39.876	-9.4618
-39.724	-9.4356
-39.572	-9.4095
-39.419	-9.3833
-39.267	-9.3571
-39.115	-9.3309
-38.963	-9.3047
-38.810	-9.2785
-38.658	-9.2524
-38.506	-9.2262
-38.354	-9.2000
-38.202	-9.1738
-38.049	-9.1476
-37.897	-9.1214
-37.745	-9.0953
-37.593	-9.0691
-37.440	-9.0429
-37.288	-9.0167
-37.136	-8.9905
-36.984	-8.9643
-36.832	-8.9381
-36.679	-8.9120
-36.527	-8.8858
-36.375	-8.8596
-36.223	-8.8334
-36.070	-8.8072
-35.918	-8.7810
-35.766	-8.7549
-35.614	-8.7287
-35.462	-8.7025
-35.309	-8.6763
-35.157	-8.6501
-35.005	-8.6239
-34.853	-8.5978
-34.700	-8.5716
-34.548	-8.5454
-34.396	-8.5192
-34.244	-8.4930
-34.092	-8.4668
-33.939	-8.4407
-33.787	-8.4145
-33.635	-8.3883
-33.483	-8.3621
-33.330	-8.3359
-33.178	-8.3097
-33.026	-8.2836
-32.874	-8.2574
-32.722	-8.2312
-32.569	-8.2050
-32.417	-8.1788
-32.265	-8.1526
-32.113	-8.1264
-31.960	-8.1003
-31.808	-8.0741
-31.656	-8.0479
-31.504	-8.0217
-31.352	-7.9955
-31.199	-7.9693
-31.047	-7.9432
-30.895	-7.9170
-30.743	-7.8908
-30.590	-7.8646
-30.438	-7.8384
-30.286	-7.8122
-30.134	-7.7861
-29.982	-7.7599
-29.829	-7.7337
-29.677	-7.7075
-29.525	-7.6813
-29.373	-7.6551
-29.220	-7.6290
-29.068	-7.6028
-28.916	-7.5766
-28.764	-7.5504
-28.612	-7.5242
-28.459	-7.4980
-28.307	-7.4718
-28.155	-7.4457
-28.003	-7.4195
-27.850	-7.3933
-27.698	-7.3671
-27.546	-7.3409
-27.394	-7.3147
-27.242	-7.2886
-27.089	-7.2624
-26.937	-7.2362
-26.785	-7.2100
-26.633	-7.1838
-26.480	-7.1576
-26.328	-7.1315
-26.176	-7.1053
-26.024	-7.0791
-25.872	-7.0529
-25.719	-7.0267
-25.567	-7.0005
-25.415	-6.9744
-25.330	-6.9482
-25.252	-6.9220
-25.175	-6.8958
-25.097	-6.8696
-25.020	-6.8434
-24.942	-6.8173
-24.864	-6.7911
-24.787	-6.7649
-24.709	-6.7387
-24.631	-6.7125
-24.554	-6.6863
-24.476	-6.6601
-24.398	-6.6340
-24.321	-6.6078
-24.243	-6.5816
-24.166	-6.5554
-24.088	-6.5292
-24.010	-6.5030
-23.933	-6.4769
-23.855	-6.4507
-23.777	-6.4245
-23.700	-6.3983
-23.622	-6.3721
-23.545	-6.3459
-23.467	-6.3198
-23.389	-6.2936
-23.312	-6.2674
-23.234	-6.2412
-23.135	-6.2150
-22.982	-6.1888
-22.828	-6.1627
-22.675	-6.1365
-22.521	-6.1103
-22.367	-6.0841
-22.214	-6.0579
-22.060	-6.0317
-21.907	-6.0056
-21.753	-5.9794
-21.600	-5.9532
-21.446	-5.9270
-21.293	-5.9008
-21.139	-5.8746
-20.985	-5.8484
-20.832	-5.8223
-20.678	-5.7961
-20.525	-5.7699
-20.371	-5.7437
-20.218	-5.7175
-20.064	-5.6913
-19.910	-5.6652
-19.757	-5.6390
-19.603	-5.6128
-19.450	-5.5866
-19.296	-5.5604
-19.143	-5.5342
-18.989	-5.5081
-18.836	-5.4819
-18.682	-5.4557
-18.528	-5.4295
-18.375	-5.4033
-18.221	-5.3771
-18.068	-5.3510
-17.914	-5.3248
-17.761	-5.2986
-17.607	-5.2724
-17.453	-5.2462
-17.300	-5.2200
-17.146	-5.1938
-16.993	-5.1677
-16.839	-5.1415
-16.686	-5.1153
-16.532	-5.0891
-16.378	-5.0629
-16.225	-5.0367
-16.071	-5.0106
-15.918	-4.9844
-15.784	-4.9582
-15.664	-4.9320
-15.545	-4.9058
-15.425	-4.8796
-15.306	-4.8535
-15.186	-4.8273
-15.067	-4.8011
-14.947	-4.7749
-14.828	-4.7487
-14.708	-4.7225
-14.589	-4.6964
-14.469	-4.6702
-14.350	-4.6440
-14.230	-4.6178
-14.111	-4.5916
-13.991	-4.5654
-13.872	-4.5393
-13.752	-4.5131
-13.633	-4.4869
-13.513	-4.4607
-13.394	-4.4345
-13.275	-4.4083
-13.155	-4.3821
-13.036	-4.3560
-12.916	-4.3298
-12.797	-4.3036
-12.677	-4.2774
-12.558	-4.2512
-12.438	-4.2250
-12.319	-4.1989
-12.199	-4.1727
-12.080	-4.1465
-11.960	-4.1203
-11.841	-4.0941
-11.721	-4.0679
-11.602	-4.0418
-11.482	-4.0156
-11.363	-3.9894
-11.243	-3.9632
-11.124	-3.9370
-11.004	-3.9108
-10.885	-3.8847
-10.765	-3.8585
-10.604	-3.8323
-10.418	-3.8061
-10.232	-3.7799
-10.046	-3.7537
-9.8602	-3.7276
-9.6743	-3.7014
-9.4884	-3.6752
-9.3025	-3.6490
-9.1166	-3.6228
-8.9307	-3.5966
-8.7447	-3.5704
-8.5588	-3.5443
-8.3729	-3.5181
-8.1870	-3.4919
-8.0011	-3.4657
-7.8152	-3.4395
-7.6292	-3.4133
-7.4433	-3.3872
-7.2574	-3.3610
-7.0686	-3.3348
-6.8775	-3.3086
-6.6864	-3.2824
-6.4952	-3.2562
-6.3041	-3.2301
-6.1130	-3.2039
-5.9219	-3.1777
-5.7307	-3.1515
-5.5396	-3.1253
-5.3485	-3.0991
-5.1573	-3.0730
-4.9662	-3.0468
-4.7751	-3.0206
-4.5840	-2.9944
-4.3928	-2.9682
-4.2017	-2.9420
-4.0106	-2.9158
-3.8194	-2.8897
-3.6283	-2.8635
-3.4372	-2.8373
-3.2460	-2.8111
-3.1944	-2.7849
-3.1629	-2.7587
-3.1313	-2.7326
-3.0998	-2.7064
-3.0682	-2.6802
-3.0367	-2.6540
-3.0051	-2.6278
-2.9735	-2.6016
-2.9420	-2.5755
-2.9104	-2.5493
-2.8789	-2.5231
-2.8473	-2.4969
-2.8158	-2.4707
-2.7842	-2.4445
-2.7526	-2.4172
-2.7211	-2.3888
-2.6895	-2.3605
-2.6580	-2.3330
-2.6264	-2.3068
-2.5949	-2.2807
-2.5633	-2.2545
-2.5318	-2.2283
-2.5002	-2.2022
-2.4686	-2.1760
-2.4371	-2.1498
-2.4055	-2.1237
-2.3740	-2.0975
-2.3424	-2.0713
-2.3109	-2.0452
-2.2793	-2.0190
-2.2478	-1.9928
-2.2162	-1.9667
-2.1846	-1.9405
-2.1531	-1.9143
-2.1215	-1.8882
-2.0900	-1.8620
-2.0584	-1.8358
-2.0269	-1.8097
-1.9953	-1.7835
-1.9638	-1.7573
-1.9322	-1.7312
-1.9006	-1.7050
-1.8691	-1.6788
-1.8375	-1.6527
-1.7121	-1.6265
-1.4093	-1.6003
-1.1066	-1.5741
-0.80381	-1.5480
-0.50104	-1.5218
-0.19827	-1.4956
0.10450	-1.4695
0.40726	-1.4433
0.71003	-1.4171
1.0128	-1.3910
1.3156	-1.3648
1.6183	-1.3386
1.9211	-1.3125
2.2239	-1.2863
2.5266	-1.2601
2.8294	-1.2340
3.0413	-1.2078
3.1389	-1.1816
3.2365	-1.1555
3.3341	-1.1293
3.4317	-1.1031
3.5293	-1.0770
3.6269	-1.0508
3.7245	-1.0246
3.8221	-0.99846
3.9198	-0.97230
4.0174	-0.94613
4.1150	-0.91996
4.2126	-0.89379
4.3102	-0.86763
4.4078	-0.84146
4.5054	-0.81529
4.6030	-0.78912
4.7006	-0.76296
4.7982	-0.73679
4.8959	-0.71062
4.9935	-0.68445
5.0911	-0.65829
5.1887	-0.63212
5.2863	-0.60595
5.3839	-0.57978
5.4815	-0.55362
5.5502	-0.52745
5.6189	-0.50128
5.6876	-0.47511
5.7563	-0.44894
5.8250	-0.42278
5.8937	-0.39661
5.9624	-0.37044
6.0311	-0.34427
6.0998	-0.31811
6.1685	-0.29194
6.2372	-0.26577
6.3059	-0.23960
6.3746	-0.21344
6.4433	-0.18727
6.5120	-0.16110
6.5807	-0.13493
6.6494	-0.10877
6.7181	-0.082599
6.7868	-0.056432
6.8554	-0.030264
6.9241	-0.0040967
6.9928	0.022071
7.0615	0.048238
7.1302	0.074406
7.1989	0.10057
7.2676	0.12674
7.3363	0.15291
7.5793	0.17908
7.8290	0.20524
8.0786	0.23141
8.3282	0.25758
8.5779	0.28375
8.8275	0.30991
9.0771	0.33608
9.3268	0.36225
9.5764	0.38842
9.8260	0.41458
10.076	0.44075
10.325	0.46692
10.575	0.49309
10.825	0.51925
11.074	0.54542
11.324	0.57159
11.573	0.59776
11.823	0.62392
12.073	0.65009
12.164	0.67626
12.233	0.70243
12.303	0.72859
12.372	0.75476
12.442	0.78093
12.511	0.80710
12.581	0.83340
12.650	0.85982
12.719	0.88624
12.789	0.91266
12.858	0.93908
12.928	0.96535
12.997	0.99157
13.067	1.0178
13.136	1.0440
13.205	1.0702
13.275	1.0964
13.344	1.1227
13.414	1.1489
13.483	1.1751
13.553	1.2013
13.622	1.2275
13.692	1.2537
13.761	1.2800
13.830	1.3062
13.900	1.3324
13.969	1.3586
14.039	1.3848
14.108	1.4111
14.178	1.4373
14.242	1.4635
14.303	1.4897
14.364	1.5159
14.426	1.5421
14.487	1.5684
14.548	1.5946
14.609	1.6208
14.671	1.6470
14.732	1.6732
14.793	1.6995
14.855	1.7257
14.916	1.7519
14.977	1.7781
15.039	1.8043
15.100	1.8306
15.161	1.8568
15.222	1.8830
15.284	1.9092
15.345	1.9354
15.537	1.9616
15.824	1.9879
16.110	2.0141
16.397	2.0403
16.684	2.0665
16.970	2.0927
17.257	2.1190
17.543	2.1452
17.830	2.1714
18.117	2.1976
18.403	2.2238
18.690	2.2500
18.976	2.2763
19.263	2.3025
19.550	2.3287
19.836	2.3549
20.123	2.3811
20.409	2.4074
20.696	2.4336
20.983	2.4598
21.269	2.4860
21.556	2.5122
21.842	2.5384
22.129	2.5647
22.247	2.5909
22.301	2.6171
22.356	2.6433
22.410	2.6695
22.465	2.6958
22.519	2.7220
22.574	2.7482
22.628	2.7744
22.683	2.8006
22.737	2.8268
22.792	2.8531
22.846	2.8793
22.901	2.9055
22.955	2.9317
23.010	2.9579
23.064	2.9842
23.119	3.0104
23.173	3.0366
23.228	3.0628
23.282	3.0890
23.337	3.1152
23.391	3.1415
23.446	3.1677
23.500	3.1939
23.555	3.2201
23.609	3.2463
23.664	3.2726
23.718	3.2988
23.773	3.3250
23.827	3.3512
23.881	3.3774
23.936	3.4036
23.990	3.4299
24.045	3.4561
24.099	3.4823
24.154	3.5085
24.208	3.5347
24.263	3.5610
24.413	3.5872
24.639	3.6134
24.865	3.6396
25.091	3.6658
25.318	3.6920
25.544	3.7183
25.770	3.7445
25.996	3.7707
26.222	3.7969
26.448	3.8231
26.674	3.8493
26.900	3.8755
27.126	3.9017
27.352	3.9279
27.578	3.9541
27.804	3.9803
28.030	4.0065
28.256	4.0327
28.482	4.0589
28.708	4.0850
28.934	4.1112
29.160	4.1374
29.387	4.1636
29.613	4.1898
29.839	4.2160
30.065	4.2422
30.291	4.2684
30.460	4.2946
30.578	4.3208
30.696	4.3469
30.814	4.3731
30.932	4.3993
31.050	4.4255
31.168	4.4517
31.285	4.4779
31.403	4.5041
31.521	4.5303
31.639	4.5565
31.757	4.5827
31.875	4.6088
31.993	4.6350
32.111	4.6612
32.229	4.6874
32.347	4.7136
32.464	4.7398
32.582	4.7660
32.700	4.7922
32.818	4.8184
32.936	4.8446
33.054	4.8707
33.172	4.8969
33.225	4.9231
33.245	4.9493
33.266	4.9755
33.287	5.0017
33.307	5.0279
33.328	5.0541
33.349	5.0803
33.369	5.1065
33.390	5.1326
33.411	5.1588
33.431	5.1850
33.452	5.2112
33.473	5.2374
33.493	5.2636
33.514	5.2898
33.535	5.3160
33.555	5.3422
33.612	5.3684
33.837	5.3945
34.063	5.4207
34.288	5.4469
34.513	5.4731
34.739	5.4993
34.964	5.5255
35.189	5.5517
35.415	5.5779
35.640	5.6041
35.865	5.6302
36.091	5.6564
36.316	5.6826
36.541	5.7088
36.767	5.7350
36.992	5.7612
37.217	5.7874
37.443	5.8136
37.668	5.8398
37.893	5.8660
38.119	5.8921
38.344	5.9183
38.569	5.9445
38.795	5.9707
39.020	5.9969
39.245	6.0231
39.357	6.0493
39.427	6.0755
39.498	6.1017
39.568	6.1279
39.638	6.1540
39.709	6.1802
39.779	6.2064
39.849	6.2326
39.919	6.2588
39.990	6.2850
40.060	6.3112
40.130	6.3374
40.200	6.3636
40.271	6.3898
40.341	6.4159
40.411	6.4421
40.482	6.4683
40.552	6.4945
40.622	6.5207
40.692	6.5469
40.763	6.5731
40.833	6.5993
40.903	6.6255
40.973	6.6517
41.044	6.6778
41.114	6.7040
41.184	6.7302
41.255	6.7564
41.325	6.7826
41.395	6.8088
41.465	6.8350
41.536	6.8612
41.606	6.8874
41.676	6.9135
41.747	6.9397
41.817	6.9659
41.887	6.9921
41.957	7.0183
42.076	7.0444
42.231	7.0706
42.387	7.0968
42.542	7.1230
42.698	7.1491
42.854	7.1753
43.009	7.2015
43.165	7.2277
43.320	7.2539
43.476	7.2800
43.631	7.3062
43.787	7.3324
43.942	7.3586
44.098	7.3848
44.254	7.4109
44.409	7.4371
44.565	7.4633
44.720	7.4895
44.876	7.5156
45.031	7.5418
45.187	7.5680
45.342	7.5942
45.498	7.6204
45.653	7.6465
45.809	7.6727
45.965	7.6989
46.120	7.7251
46.276	7.7512
46.431	7.7774
46.587	7.8036
46.742	7.8298
46.898	7.8560
47.053	7.8821
47.209	7.9083
47.365	7.9345
47.520	7.9607
47.676	7.9869
47.822	8.0130
47.968	8.0392
48.114	8.0654
48.261	8.0916
48.407	8.1177
48.553	8.1439
48.699	8.1701
48.845	8.1963
48.992	8.2225
49.138	8.2486
49.284	8.2748
49.430	8.3010
49.577	8.3270
49.723	8.3523
49.869	8.3776
50.015	8.4030
50.161	8.4283
50.308	8.4541
50.454	8.4803
50.600	8.5065
50.746	8.5327
50.893	8.5590
51.039	8.5852
51.185	8.6114
51.331	8.6376
51.477	8.6639
51.624	8.6901
51.770	8.7163
51.916	8.7425
52.062	8.7687
52.163	8.7950
52.251	8.8212
52.339	8.8474
52.427	8.8736
52.515	8.8999
52.602	8.9261
52.690	8.9523
52.778	8.9785
52.866	9.0047
52.954	9.0310
53.041	9.0572
53.129	9.0834
53.217	9.1096
53.305	9.1358
53.393	9.1621
53.481	9.1883
53.568	9.2145
53.656	9.2407
53.744	9.2670
53.832	9.2932
53.920	9.3194
54.007	9.3456
54.095	9.3718
54.183	9.3981
54.462	9.4243
54.758	9.4505
55.053	9.4767
55.349	9.5030
55.645	9.5292
55.941	9.5554
56.237	9.5816
56.533	9.6078
56.828	9.6341
57.124	9.6603
57.420	9.6865
57.716	9.7127
58.012	9.7389
58.308	9.7652
58.604	9.7914
58.899	9.8176
59.195	9.8438
59.366	9.8701
59.368	9.8963
59.370	9.9225
59.373	9.9487
59.375	9.9749
59.377	9.9975
59.379	10.017
59.381	10.012
57.547	9.9938
53.671	9.9601
51.270	9.9265
49.568	9.8956
49.083	9.8717
48.597	9.8478
48.112	9.8238
47.627	9.7999
47.141	9.7760
46.656	9.7520
46.170	9.7281
45.685	9.7042
45.200	9.6803
44.714	9.6546
44.229	9.6284
43.744	9.6022
43.447	9.5760
43.292	9.5498
43.138	9.5237
42.983	9.4975
42.828	9.4713
42.673	9.4451
42.519	9.4189
42.364	9.3927
42.209	9.3665
42.055	9.3403
41.900	9.3141
41.745	9.2879
41.591	9.2617
41.436	9.2355
41.281	9.2093
41.127	9.1831
40.972	9.1569
40.817	9.1307
40.662	9.1045
40.508	9.0784
40.353	9.0522
40.198	9.0260
40.044	8.9998
39.889	8.9736
39.734	8.9474
39.580	8.9212
39.425	8.8950
39.270	8.8688
39.116	8.8426
38.961	8.8164
38.806	8.7902
38.651	8.7640
38.497	8.7378
38.342	8.7116
38.187	8.6854
38.033	8.6592
37.878	8.6331
37.723	8.6069
37.569	8.5807
37.414	8.5545
37.259	8.5283
37.105	8.5021
36.950	8.4759
36.795	8.4497
36.640	8.4235
36.486	8.3973
36.331	8.3711
36.176	8.3449
36.022	8.3187
35.867	8.2925
35.712	8.2663
35.558	8.2401
35.403	8.2140
35.248	8.1878
35.094	8.1616
34.939	8.1354
34.784	8.1092
34.629	8.0830
34.475	8.0568
34.320	8.0306
34.165	8.0044
34.011	7.9782
33.856	7.9520
33.701	7.9258
33.547	7.8996
33.392	7.8734
33.237	7.8472
33.083	7.8210
32.928	7.7948
32.773	7.7687
32.618	7.7425
32.464	7.7163
32.309	7.6901
32.154	7.6639
32.000	7.6377
31.845	7.6115
31.690	7.5853
31.536	7.5591
31.381	7.5329
31.226	7.5067
31.072	7.4805
30.917	7.4543
30.762	7.4281
30.607	7.4019
30.453	7.3757
30.298	7.3496
30.143	7.3234
29.989	7.2972
29.834	7.2710
29.679	7.2448
29.525	7.2186
29.370	7.1924
29.215	7.1662
29.061	7.1400
28.906	7.1138
28.751	7.0876
28.596	7.0614
28.442	7.0352
28.287	7.0090
28.132	6.9828
27.978	6.9566
27.823	6.9304
27.668	6.9043
27.514	6.8781
27.359	6.8519
27.204	6.8257
27.050	6.7995
26.895	6.7733
26.740	6.7471
26.586	6.7209
26.431	6.6947
26.276	6.6685
26.121	6.6423
25.967	6.6161
25.812	6.5899
25.657	6.5637
25.503	6.5375
25.348	6.5113
25.193	6.4851
25.039	6.4590
24.884	6.4328
24.729	6.4066
24.575	6.3804
24.420	6.3542
24.265	6.3280
24.110	6.3018
23.956	6.2756
23.801	6.2494
23.646	6.2232
23.492	6.1970
23.337	6.1708
23.182	6.1446
23.028	6.1184
22.873	6.0922
22.718	6.0660
22.564	6.0399
22.409	6.0137
22.254	5.9875
22.099	5.9613
21.945	5.9351
21.790	5.9089
21.635	5.8827
21.481	5.8565
21.326	5.8303
21.171	5.8041
21.017	5.7779
20.862	5.7517
20.707	5.7255
20.553	5.6993
20.398	5.6731
20.243	5.6469
20.088	5.6207
19.934	5.5946
19.779	5.5684
19.624	5.5422
19.470	5.5160
19.315	5.4898
19.160	5.4636
19.006	5.4374
18.851	5.4112
18.696	5.3850
18.542	5.3588
18.387	5.3326
18.232	5.3064
18.077	5.2802
17.923	5.2540
17.768	5.2278
17.613	5.2016
17.459	5.1754
17.304	5.1493
17.149	5.1231
16.995	5.0969
16.840	5.0707
16.685	5.0445
16.531	5.0183
16.376	4.9921
16.221	4.9659
16.066	4.9397
15.912	4.9135
15.757	4.8873
15.602	4.8611
15.448	4.8349
15.293	4.8087
15.138	4.7825
14.984	4.7563
14.829	4.7302
14.674	4.7040
14.520	4.6778
14.365	4.6516
14.210	4.6254
14.055	4.5992
13.901	4.5730
13.746	4.5468
13.591	4.5206
13.437	4.4944
13.282	4.4682
13.127	4.4420
12.973	4.4158
12.818	4.3896
12.663	4.3634
12.509	4.3372
12.354	4.3110
12.199	4.2849
12.044	4.2587
11.890	4.2325
11.735	4.2063
11.580	4.1801
11.426	4.1539
11.271	4.1277
11.116	4.1015
10.962	4.0753
10.807	4.0491
10.652	4.0229
10.498	3.9967
10.343	3.9705
10.188	3.9443
10.033	3.9181
9.8788	3.8919
9.7241	3.8658
9.5694	3.8396
9.4147	3.8134
9.2600	3.7872
9.1053	3.7610
8.9506	3.7348
8.7960	3.7086
8.6413	3.6824
8.4866	3.6562
8.3319	3.6300
8.1772	3.6038
8.0225	3.5776
7.8678	3.5514
7.7131	3.5252
7.5628	3.4990
7.4193	3.4728
7.2758	3.4466
7.1323	3.4205
6.9888	3.3943
6.8453	3.3681
6.7018	3.3419
6.5583	3.3157
6.4148	3.2895
6.2713	3.2633
6.1278	3.2371
5.9843	3.2109
5.8409	3.1847
5.6974	3.1585
5.5539	3.1323
5.4104	3.1061
5.2669	3.0799
5.1234	3.0537
4.9799	3.0275
4.8364	3.0013
4.6929	2.9752
4.5494	2.9490
4.4059	2.9228
4.2624	2.8966
4.1189	2.8704
3.9754	2.8442
3.8320	2.8180
3.6885	2.7918
3.5450	2.7656
3.4015	2.7394
3.2580	2.7132
3.1145	2.6870
2.9710	2.6608
2.8275	2.6346
2.6840	2.6084
2.5405	2.5822
2.3970	2.5561
2.2535	2.5299
2.1100	2.5037
1.9665	2.4775
1.8231	2.4513
1.6796	2.4251
1.5361	2.3989
1.3926	2.3727
1.2491	2.3465
1.1056	2.3203
0.96210	2.2941
0.81861	2.2679
0.67511	2.2417
0.53162	2.2155
0.38813	2.1893
0.24464	2.1631
0.10114	2.1369
-0.042349	2.1108
-0.18584	2.0846
-0.32933	2.0584
-0.47283	2.0322
-0.61632	2.0060
-0.75981	1.9798
-0.90330	1.9536
-1.0468	1.9274
-1.1903	1.9012
-1.3338	1.8750
-1.4773	1.8488
-1.6208	1.8226
-1.7643	1.7964
-1.9078	1.7702
-2.0512	1.7440
-2.1947	1.7178
-2.3382	1.6917
-2.4817	1.6655
-2.6252	1.6393
-2.7687	1.6131
-2.9122	1.5869
-3.0557	1.5607
-3.2269	1.5345
-3.4135	1.5083
-3.6000	1.4821
-3.7866	1.4559
-3.9731	1.4297
-4.1597	1.4035
-4.3462	1.3773
-4.5328	1.3511
-4.6958	1.3249
-4.8485	1.2987
-5.0011	1.2725
-5.1537	1.2464
-5.3064	1.2202
-5.4590	1.1940
-5.6117	1.1678
-5.7643	1.1416
-5.9169	1.1154
-6.0696	1.0892
-6.2222	1.0630
-6.3748	1.0368
-6.5275	1.0106
-6.6801	0.98441
-6.8327	0.95822
-6.9854	0.93203
-7.1380	0.90583
-7.2907	0.87964
-7.4433	0.85344
-7.5959	0.82725
-7.7486	0.80106
-7.9012	0.77486
-8.0538	0.74867
-8.2065	0.72247
-8.3591	0.69628
-8.5117	0.66916
-8.6644	0.63923
-8.8170	0.61178
-8.9697	0.58561
-9.1223	0.55945
-9.2749	0.53329
-9.4276	0.50713
-9.5802	0.48097
-9.7328	0.45481
-9.8855	0.42865
-10.038	0.40249
-10.191	0.37632
-10.343	0.35016
-10.496	0.32400
-10.649	0.29784
-10.801	0.27168
-10.954	0.24552
-11.107	0.21936
-11.259	0.19319
-11.412	0.16703
-11.564	0.14087
-11.717	0.11471
-11.870	0.088549
-12.022	0.062387
-12.175	0.036226
-12.328	0.010064
-12.480	-0.016097
-12.633	-0.042258
-12.786	-0.068420
-12.938	-0.094581
-13.091	-0.12074
-13.243	-0.14690
-13.396	-0.17307
-13.549	-0.19923
-13.701	-0.22539
-13.854	-0.25155
-14.007	-0.27771
-14.159	-0.30387
-14.312	-0.33003
-14.465	-0.35619
-14.617	-0.38236
-14.770	-0.40852
-14.922	-0.43468
-15.075	-0.46084
-15.228	-0.48700
-15.380	-0.51316
-15.533	-0.53932
-15.686	-0.56549
-15.838	-0.59165
-15.991	-0.61781
-16.144	-0.64397
-16.296	-0.67013
-16.449	-0.69629
-16.601	-0.72245
-16.754	-0.74862
-16.907	-0.77478
-17.059	-0.80094
-17.212	-0.82710
-17.365	-0.85326
-17.513	-0.87942
-17.656	-0.90558
-17.799	-0.93175
-17.941	-0.95791
-18.084	-0.98407
-18.227	-1.0102
-18.370	-1.0364
-18.512	-1.0626
-18.655	-1.0887
-18.798	-1.1149
-18.940	-1.1410
-19.083	-1.1672
-19.226	-1.1934
-19.369	-1.2195
-19.511	-1.2457
-19.654	-1.2718
-19.797	-1.2980
-19.940	-1.3242
-20.082	-1.3503
-20.225	-1.3765
-20.368	-1.4026
-20.510	-1.4288
-20.653	-1.4550
-20.796	-1.4811
-20.939	-1.5073
-21.081	-1.5335
-21.224	-1.5596
-21.367	-1.5858
-21.509	-1.6120
-21.652	-1.6382
-21.795	-1.6643
-21.938	-1.6905
-22.080	-1.7167
-22.223	-1.7428
-22.366	-1.7690
-22.508	-1.7952
-22.651	-1.8213
-22.794	-1.8475
-22.937	-1.8737
-23.079	-1.8999
-23.222	-1.9260
-23.365	-1.9522
-23.507	-1.9784
-23.655	-2.0045
-23.807	-2.0307
-23.959	-2.0569
-24.111	-2.0831
-24.264	-2.1092
-24.416	-2.1354
-24.568	-2.1616
-24.720	-2.1877
-24.873	-2.2139
-25.025	-2.2401
-25.177	-2.2662
-25.329	-2.2924
-25.482	-2.3186
-25.634	-2.3448
-25.786	-2.3709
-25.938	-2.3971
-26.090	-2.4233
-26.243	-2.4494
-26.395	-2.4756
-26.547	-2.5018
-26.699	-2.5280
-26.852	-2.5541
-27.004	-2.5803
-27.156	-2.6065
-27.308	-2.6326
-27.461	-2.6588
-27.613	-2.6850
-27.765	-2.7112
-27.917	-2.7373
-28.070	-2.7635
-28.222	-2.7897
-28.374	-2.8158
-28.526	-2.8420
-28.679	-2.8682
-28.831	-2.8943
-28.983	-2.9206
-29.135	-2.9469
-29.288	-2.9732
-29.440	-2.9994
-29.592	-3.0257
-29.744	-3.0520
-29.896	-3.0783
-30.049	-3.1046
-30.201	-3.1309
-30.353	-3.1572
-30.505	-3.1835
-30.658	-3.2098
-30.810	-3.2361
-30.962	-3.2624
-31.114	-3.2887
-31.267	-3.3149
-31.419	-3.3412
-31.571	-3.3675
-31.723	-3.3938
-31.876	-3.4201
-32.028	-3.4464
-32.180	-3.4727
-32.332	-3.4990
-32.485	-3.5252
-32.637	-3.5514
-32.789	-3.5776
-32.941	-3.6037
-33.094	-3.6299
-33.246	-3.6561
-33.398	-3.6823
-33.550	-3.7085
-33.702	-3.7347
-33.848	-3.7609
-33.990	-3.7871
-34.132	-3.8133
-34.274	-3.8395
-34.416	-3.8657
-34.558	-3.8919
-34.701	-3.9181
-34.843	-3.9443
-34.985	-3.9705
-35.127	-3.9967
-35.269	-4.0229
-35.411	-4.0491
-35.553	-4.0753
-35.695	-4.1015
-35.837	-4.1276
-35.980	-4.1538
-36.122	-4.1800
-36.264	-4.2062
-36.406	-4.2324
-36.548	-4.2586
-36.690	-4.2848
-36.832	-4.3110
-36.974	-4.3372
-37.116	-4.3634
-37.259	-4.3896
-37.401	-4.4158
-37.543	-4.4420
-37.685	-4.4682
-37.827	-4.4944
-37.969	-4.5206
-38.111	-4.5468
-38.253	-4.5730
-38.395	-4.5992
-38.538	-4.6254
-38.680	-4.6516
-38.822	-4.6777
-38.964	-4.7039
-39.106	-4.7301
-39.248	-4.7563
-39.390	-4.7825
-39.532	-4.8087
-39.674	-4.8349
-39.817	-4.8611
-39.959	-4.8873
-40.101	-4.9135
-40.243	-4.9397
-40.385	-4.9659
-40.527	-4.9921
-40.669	-5.0183
-40.811	-5.0445
-40.953	-5.0707
-41.096	-5.0969
-41.238	-5.1231
-41.380	-5.1493
-41.522	-5.1755
-41.664	-5.2017
-41.806	-5.2278
-41.948	-5.2540
-42.090	-5.2802
-42.232	-5.3064
-42.375	-5.3326
-42.517	-5.3588
-42.659	-5.3850
-42.801	-5.4112
-42.943	-5.4374
-43.085	-5.4636
-43.227	-5.4898
-43.369	-5.5160
-43.511	-5.5422
-43.654	-5.5684
-43.796	-5.5946
-43.938	-5.6208
-44.080	-5.6470
-44.222	-5.6732
-44.364	-5.6994
-44.506	-5.7256
-44.648	-5.7517
-44.790	-5.7779
-44.933	-5.8041
-45.075	-5.8303
-45.217	-5.8565
-45.359	-5.8827
-45.501	-5.9089
-45.643	-5.9351
-45.785	-5.9613
-45.927	-5.9875
-46.069	-6.0137
-46.212	-6.0399
-46.354	-6.0661
-46.519	-6.0923
-46.699	-6.1185
-46.879	-6.1447
-47.059	-6.1709
-47.239	-6.1971
-47.419	-6.2233
-47.599	-6.2495
-47.779	-6.2757
-47.959	-6.3018
-48.138	-6.3280
-48.318	-6.3542
-48.498	-6.3804
-48.678	-6.4066
-48.858	-6.4328
-49.038	-6.4590
-49.218	-6.4852
-49.398	-6.5114
-49.578	-6.5376
-49.758	-6.5638
-49.938	-6.5900
-50.118	-6.6162
-50.298	-6.6424
-50.477	-6.6686
-50.657	-6.6948
-50.837	-6.7210
-51.017	-6.7472
-51.197	-6.7734
-51.377	-6.7996
-51.557	-6.8258
-51.737	-6.8519
-51.917	-6.8781
-52.097	-6.9043
-52.277	-6.9305
-52.457	-6.9567
-52.637	-6.9829
-52.816	-7.0091
-52.995	-7.0353
-53.137	-7.0615
-53.280	-7.0877
-53.422	-7.1139
-53.565	-7.1401
-53.707	-7.1663
-53.850	-7.1925
-53.993	-7.2187
-54.135	-7.2449
-54.278	-7.2711
-54.420	-7.2973
-54.563	-7.3235
-54.705	-7.3497
-54.848	-7.3758
-54.990	-7.4020
-55.133	-7.4282
-55.275	-7.4544
-55.418	-7.4806
-55.560	-7.5068
-55.703	-7.5330
-55.846	-7.5592
-55.988	-7.5854
-56.131	-7.6116
-56.273	-7.6378
-56.416	-7.6640
-56.558	-7.6902
-56.701	-7.7164
-56.843	-7.7426
-56.986	-7.7688
-57.128	-7.7950
-57.271	-7.8212
-57.413	-7.8474
-57.555	-7.8736
-57.697	-7.8997
-57.840	-7.9259
-57.982	-7.9521
-58.124	-7.9783
-58.266	-8.0045
-58.408	-8.0306
-58.550	-8.0568
-58.692	-8.0830
-58.835	-8.1092
-58.977	-8.1354
-59.119	-8.1616
-59.261	-8.1877
-59.403	-8.2139
-59.545	-8.2401
-59.687	-8.2663
-59.830	-8.2925
-59.972	-8.3186
-60.114	-8.3448
-60.256	-8.3710
-60.398	-8.3972
-60.540	-8.4234
-60.683	-8.4496
-60.825	-8.4757
-60.967	-8.5019
-61.109	-8.5281
-61.251	-8.5543
-61.393	-8.5805
-61.535	-8.6066
-61.678	-8.6328
-61.820	-8.6590
-61.962	-8.6852
-62.104	-8.7114
-62.246	-8.7376
-62.388	-8.7637
-62.530	-8.7899
-62.673	-8.8161
-62.815	-8.8423
-62.957	-8.8685
-63.099	-8.8946
-63.241	-8.9208
-63.383	-8.9470
-63.525	-8.9732
-63.668	-8.9994
-63.810	-9.0255
-63.952	-9.0517
-64.094	-9.0779
-64.236	-9.1041
-64.378	-9.1303
-64.521	-9.1565
-64.663	-9.1826
-64.805	-9.2088
-64.947	-9.2350
-65.089	-9.2612
-65.231	-9.2874
-65.373	-9.3135
-65.516	-9.3397
-65.658	-9.3659
-65.800	-9.3921
-65.942	-9.4183
-66.084	-9.4445
-66.226	-9.4706
-66.368	-9.4968
-66.511	-9.5230
-66.653	-9.5492
-66.795	-9.5754
-66.937	-9.6015
-67.079	-9.6277
-67.221	-9.6539
-67.363	-9.6801
-67.506	-9.7063
-67.648	-9.7325
-67.790	-9.7586
-67.932	-9.7848
-68.074	-9.8110
-68.216	-9.8372
-68.359	-9.8634
-68.583	-9.8895
-68.815	-9.9157
-69.048	-9.9419
-69.281	-9.9681
-69.514	-9.9926
-69.747	-10.006
-69.444	-10.004
-68.689	-9.9865
-63.495	-9.9502
-58.940	-9.9170
-55.915	-9.8909
-52.307	-9.8685
-48.663	-9.8471
-45.638	-9.8257
-43.506	-9.8044
-41.993	-9.7830
